SpectraSuite Datei
++++++++++++++++++++++++++++++++++++
Datum: Thu Mar 09 11:15:56 CET 2017
Benutzer: Admin
Dark-Spektrum vorhanden: Ja
Referenz-Spektrum vorhanden: Nein
Zahl der probierten Teilspektren: 1
Spektrometer: USB4F05832
Integrationszeit (usec): 1000 (USB4F05832)
Spektren Durchschnitt berechnet: 50 (USB4F05832)
Boxcar Glttung: 0 (USB4F05832)
Dunkelstromkorrektur: Nein (USB4F05832)
Puls/Lampe aktiviert: Nein (USB4F05832)
Correct for Detector Non-linearity: Nein (USB4F05832)
Streulichtkorrektur: Nein (USB4F05832)
Anzahl Pixel in verarbeitetem Spektrum: 3648
>>>>>Begin Processed Spectral Data<<<<<
177,54	4,38
177,75	4,38
177,97	4,38
178,19	-13,35
178,41	-5,41
178,63	4,96
178,85	2,25
179,07	-17,00
179,29	-2,58
179,51	7,95
179,73	-1,72
179,95	6,51
180,17	-10,69
180,39	-9,50
180,61	-7,37
180,83	2,99
181,05	11,67
181,27	-5,73
181,49	12,08
181,71	1,31
181,92	5,24
182,14	-5,53
182,36	-1,31
182,58	11,39
182,80	-6,68
183,02	-2,33
183,24	7,86
183,46	-1,88
183,68	12,21
183,90	9,46
184,12	-5,57
184,34	-9,26
184,56	6,96
184,78	7,13
185,00	0,57
185,21	4,01
185,43	-3,44
185,65	6,02
185,87	8,97
186,09	-10,53
186,31	10,77
186,53	7,37
186,75	-5,57
186,97	2,83
187,19	1,84
187,41	4,63
187,63	-9,17
187,84	-9,26
188,06	-2,29
188,28	-8,31
188,50	-6,84
188,72	-7,21
188,94	-4,55
189,16	3,73
189,38	10,40
189,60	12,45
189,82	-14,25
190,03	3,77
190,25	-16,34
190,47	-9,38
190,69	3,93
190,91	-0,66
191,13	7,37
191,35	10,16
191,57	4,96
191,79	-3,56
192,01	5,94
192,22	1,88
192,44	-0,66
192,66	0,98
192,88	6,10
193,10	-0,16
193,32	-3,32
193,54	-4,75
193,76	-6,51
193,98	-14,42
194,19	-7,66
194,41	-4,63
194,63	-0,04
194,85	4,14
195,07	-10,24
195,29	-2,91
195,51	-2,95
195,73	0,90
195,94	3,32
196,16	-8,19
196,38	6,51
196,60	-2,29
196,82	2,38
197,04	13,23
197,26	1,06
197,48	7,13
197,69	1,43
197,91	-6,39
198,13	1,84
198,35	-1,27
198,57	1,72
198,79	-21,18
199,01	0,08
199,22	1,64
199,44	12,62
199,66	4,42
199,88	-4,67
200,10	-3,85
200,32	-9,67
200,54	-1,72
200,75	3,40
200,97	15,36
201,19	-0,33
201,41	0,37
201,63	-9,99
201,85	-5,69
202,06	-4,34
202,28	5,86
202,50	5,41
202,72	-10,16
202,94	-5,49
203,16	1,43
203,38	-5,65
203,59	-12,82
203,81	3,60
204,03	7,54
204,25	0,61
204,47	-4,34
204,69	4,26
204,90	7,99
205,12	3,15
205,34	1,56
205,56	5,82
205,78	2,62
206,00	14,99
206,21	-3,81
206,43	-4,42
206,65	-4,87
206,87	-2,91
207,09	-8,44
207,30	-4,46
207,52	-0,49
207,74	8,03
207,96	0,90
208,18	-1,15
208,40	0,61
208,61	-4,10
208,83	-3,52
209,05	-7,70
209,27	2,09
209,49	-6,96
209,70	18,51
209,92	-5,24
210,14	5,78
210,36	2,83
210,58	-6,51
210,79	1,39
211,01	1,47
211,23	2,83
211,45	-7,78
211,67	-7,74
211,88	1,56
212,10	5,00
212,32	-0,61
212,54	-10,28
212,76	-6,10
212,97	1,97
213,19	14,13
213,41	3,03
213,63	12,66
213,85	-5,90
214,06	-1,19
214,28	-10,69
214,50	8,11
214,72	3,93
214,94	10,16
215,15	15,36
215,37	-8,93
215,59	-4,63
215,81	2,87
216,02	8,03
216,24	-2,87
216,46	4,83
216,68	5,90
216,90	-8,93
217,11	7,33
217,33	9,34
217,55	-0,29
217,77	3,28
217,98	-8,15
218,20	4,79
218,42	-1,72
218,64	-7,21
218,85	-6,92
219,07	-0,94
219,29	0,33
219,51	4,63
219,73	-7,33
219,94	2,74
220,16	-1,39
220,38	4,14
220,60	-0,16
220,81	7,82
221,03	2,74
221,25	-0,29
221,47	-5,94
221,68	10,77
221,90	1,64
222,12	3,56
222,34	12,08
222,55	4,14
222,77	8,03
222,99	8,23
223,21	-4,79
223,42	-9,95
223,64	9,01
223,86	8,31
224,08	-1,23
224,29	-1,76
224,51	7,50
224,73	0,08
224,94	-8,56
225,16	-2,29
225,38	-0,70
225,60	-3,85
225,81	-8,23
226,03	3,07
226,25	1,19
226,47	2,05
226,68	-2,79
226,90	-0,98
227,12	5,69
227,33	0,08
227,55	8,72
227,77	8,15
227,99	6,23
228,20	1,84
228,42	0,61
228,64	3,15
228,86	3,03
229,07	-4,55
229,29	-9,50
229,51	6,47
229,72	6,27
229,94	1,72
230,16	-2,46
230,38	-11,92
230,59	-1,27
230,81	-3,36
231,03	0,00
231,24	4,83
231,46	8,68
231,68	-11,80
231,89	-9,54
232,11	7,33
232,33	5,04
232,55	13,56
232,76	-1,60
232,98	-12,29
233,20	7,25
233,41	3,65
233,63	4,63
233,85	4,59
234,06	-1,47
234,28	-3,73
234,50	3,56
234,71	0,78
234,93	7,25
235,15	-1,68
235,37	-19,33
235,58	-12,41
235,80	-9,30
236,02	0,49
236,23	6,14
236,45	-7,86
236,67	6,76
236,88	4,30
237,10	5,16
237,32	-7,13
237,53	1,68
237,75	15,40
237,97	-0,33
238,18	-4,67
238,40	4,67
238,62	-6,31
238,83	13,19
239,05	1,84
239,27	-1,31
239,48	-4,51
239,70	7,25
239,92	16,14
240,13	-2,95
240,35	-0,70
240,57	9,38
240,78	-0,41
241,00	0,90
241,22	2,54
241,43	-1,76
241,65	9,63
241,87	-7,25
242,08	-0,90
242,30	4,30
242,52	-1,52
242,73	13,43
242,95	2,91
243,16	6,76
243,38	12,53
243,60	-8,77
243,81	-9,67
244,03	-0,37
244,25	1,97
244,46	-2,01
244,68	-1,93
244,90	8,44
245,11	-2,38
245,33	0,04
245,55	-3,48
245,76	1,35
245,98	2,38
246,19	-4,59
246,41	-4,10
246,63	0,08
246,84	11,22
247,06	-1,97
247,28	-2,13
247,49	-2,83
247,71	3,11
247,92	1,11
248,14	1,72
248,36	-13,23
248,57	17,08
248,79	7,37
249,01	-0,86
249,22	-4,63
249,44	-1,35
249,65	-3,07
249,87	-3,52
250,09	-4,10
250,30	-1,23
250,52	-9,50
250,73	13,23
250,95	2,33
251,17	-3,15
251,38	-5,32
251,60	0,20
251,81	-9,71
252,03	14,34
252,25	3,60
252,46	0,74
252,68	5,37
252,89	11,39
253,11	-3,65
253,33	5,98
253,54	11,39
253,76	-8,97
253,97	10,94
254,19	-8,19
254,41	18,76
254,62	15,24
254,84	-3,56
255,05	3,93
255,27	-7,37
255,49	-3,81
255,70	2,50
255,92	-13,11
256,13	10,94
256,35	12,78
256,56	-23,63
256,78	2,99
257,00	-2,17
257,21	6,55
257,43	4,96
257,64	12,70
257,86	2,54
258,08	-5,20
258,29	1,68
258,51	2,42
258,72	-0,41
258,94	-1,19
259,15	-6,43
259,37	5,90
259,59	-4,83
259,80	-2,13
260,02	6,10
260,23	10,57
260,45	-0,08
260,66	-0,08
260,88	8,44
261,09	2,46
261,31	13,93
261,53	-2,05
261,74	-11,71
261,96	6,76
262,17	-0,57
262,39	0,78
262,60	-8,68
262,82	-3,32
263,03	-7,13
263,25	7,37
263,46	-4,10
263,68	-8,27
263,90	7,09
264,11	-0,86
264,33	2,70
264,54	-17,41
264,76	11,92
264,97	-3,97
265,19	8,03
265,40	0,08
265,62	6,18
265,83	10,57
266,05	3,19
266,26	1,43
266,48	5,00
266,70	3,93
266,91	-2,58
267,13	2,13
267,34	3,19
267,56	-7,62
267,77	2,91
267,99	2,25
268,20	-6,96
268,42	-9,01
268,63	5,61
268,85	-0,61
269,06	7,05
269,28	-2,95
269,49	4,22
269,71	-10,85
269,92	11,43
270,14	-0,45
270,35	11,43
270,57	-0,57
270,78	6,35
271,00	10,49
271,21	-11,06
271,43	-1,47
271,64	-6,68
271,86	-9,79
272,07	-7,05
272,29	2,38
272,50	-1,72
272,72	0,20
272,93	10,81
273,15	13,68
273,36	18,31
273,58	12,82
273,79	13,97
274,01	0,74
274,22	-0,04
274,44	-7,82
274,65	-0,57
274,87	4,63
275,08	12,00
275,30	6,14
275,51	-4,92
275,73	-3,28
275,94	-1,52
276,16	-2,09
276,37	-0,04
276,59	16,18
276,80	1,60
277,02	-10,53
277,23	9,75
277,45	11,47
277,66	13,93
277,88	-2,58
278,09	3,85
278,30	1,27
278,52	1,11
278,73	1,39
278,95	7,78
279,16	4,10
279,38	1,56
279,59	-1,97
279,81	-1,47
280,02	3,52
280,24	-3,65
280,45	-12,29
280,67	-2,01
280,88	3,93
281,09	-2,33
281,31	12,53
281,52	4,01
281,74	0,49
281,95	7,78
282,17	6,14
282,38	3,19
282,60	-4,14
282,81	-2,29
283,02	-2,70
283,24	-4,71
283,45	-2,01
283,67	-3,56
283,88	-2,09
284,10	-0,08
284,31	-1,93
284,53	9,58
284,74	-16,02
284,95	-2,33
285,17	-5,69
285,38	-5,78
285,60	-10,65
285,81	-2,42
286,03	-6,27
286,24	-0,12
286,45	-7,50
286,67	19,33
286,88	1,84
287,10	-2,42
287,31	9,83
287,53	-4,87
287,74	-6,35
287,95	9,01
288,17	0,53
288,38	0,53
288,60	-2,83
288,81	-0,94
289,02	-0,98
289,24	4,75
289,45	-11,96
289,67	-3,65
289,88	0,90
290,10	-4,71
290,31	-1,76
290,52	19,33
290,74	14,54
290,95	-0,49
291,17	-6,92
291,38	3,07
291,59	8,97
291,81	6,10
292,02	7,78
292,24	2,54
292,45	-15,81
292,66	-3,03
292,88	2,17
293,09	-9,63
293,31	7,45
293,52	2,46
293,73	11,47
293,95	-5,90
294,16	-11,71
294,37	12,57
294,59	-4,79
294,80	-5,45
295,02	-9,50
295,23	-1,60
295,44	-3,81
295,66	-3,65
295,87	-1,97
296,09	-2,25
296,30	-5,82
296,51	7,41
296,73	-0,94
296,94	-9,34
297,15	-0,90
297,37	8,89
297,58	-7,78
297,79	1,80
298,01	5,49
298,22	0,49
298,44	5,86
298,65	-3,36
298,86	16,30
299,08	4,10
299,29	-9,75
299,50	5,41
299,72	5,24
299,93	-2,29
300,14	-0,37
300,36	-0,57
300,57	0,82
300,79	-1,68
301,00	8,85
301,21	1,72
301,43	-3,93
301,64	0,78
301,85	5,98
302,07	-17,82
302,28	9,42
302,49	-6,27
302,71	2,70
302,92	6,14
303,13	-9,50
303,35	4,34
303,56	2,21
303,77	-0,04
303,99	6,43
304,20	-5,98
304,41	5,69
304,63	-4,96
304,84	-4,67
305,05	-1,06
305,27	23,51
305,48	-4,67
305,69	-0,12
305,91	11,80
306,12	7,37
306,33	16,55
306,55	-7,37
306,76	1,68
306,97	-0,94
307,19	2,58
307,40	-0,90
307,61	-3,19
307,82	4,63
308,04	-7,00
308,25	-3,56
308,46	-2,83
308,68	-0,33
308,89	-8,40
309,10	-10,28
309,32	17,49
309,53	10,57
309,74	-9,83
309,96	-5,32
310,17	2,13
310,38	-5,37
310,59	-14,34
310,81	-0,20
311,02	-3,15
311,23	-4,51
311,45	5,16
311,66	16,63
311,87	-8,15
312,09	-4,10
312,30	3,32
312,51	-8,64
312,72	13,07
312,94	-4,05
313,15	-9,79
313,36	2,13
313,58	3,85
313,79	-0,41
314,00	-2,25
314,21	-5,37
314,43	5,86
314,64	6,14
314,85	1,88
315,06	12,70
315,28	-10,85
315,49	-8,64
315,70	17,74
315,92	-11,14
316,13	-8,23
316,34	-3,19
316,55	-4,63
316,77	9,09
316,98	-4,30
317,19	-5,45
317,40	2,99
317,62	5,78
317,83	-7,45
318,04	-0,74
318,25	-2,09
318,47	-8,81
318,68	-6,14
318,89	4,42
319,11	-8,07
319,32	-4,05
319,53	-5,41
319,74	-4,01
319,96	16,14
320,17	-2,87
320,38	3,36
320,59	-5,32
320,81	9,13
321,02	6,92
321,23	7,21
321,44	-6,23
321,65	-10,08
321,87	3,48
322,08	-3,65
322,29	1,47
322,50	7,00
322,72	-1,47
322,93	-9,50
323,14	15,52
323,35	-11,30
323,57	8,97
323,78	4,87
323,99	12,41
324,20	2,05
324,41	3,19
324,63	0,61
324,84	2,46
325,05	9,50
325,26	-2,99
325,48	4,92
325,69	17,57
325,90	-2,50
326,11	2,09
326,32	-5,73
326,54	-4,34
326,75	6,68
326,96	7,41
327,17	13,84
327,39	12,70
327,60	7,58
327,81	10,08
328,02	-9,63
328,23	1,31
328,45	3,28
328,66	0,12
328,87	-14,50
329,08	-2,70
329,29	4,51
329,51	27,77
329,72	9,71
329,93	-6,02
330,14	3,15
330,35	15,44
330,56	-14,09
330,78	2,54
330,99	11,51
331,20	-10,90
331,41	11,92
331,62	4,96
331,84	7,33
332,05	5,24
332,26	-2,17
332,47	-2,79
332,68	-1,27
332,90	9,54
333,11	5,16
333,32	5,45
333,53	-1,11
333,74	1,84
333,95	2,66
334,17	-8,07
334,38	8,56
334,59	-1,56
334,80	-2,83
335,01	-6,51
335,22	5,78
335,44	10,49
335,65	3,48
335,86	2,46
336,07	-8,40
336,28	-8,52
336,49	2,13
336,71	7,45
336,92	2,91
337,13	-11,67
337,34	-0,66
337,55	5,37
337,76	-3,40
337,97	-8,31
338,19	12,37
338,40	8,81
338,61	-2,70
338,82	11,47
339,03	5,90
339,24	-0,74
339,45	-7,86
339,67	-0,78
339,88	-1,31
340,09	-0,04
340,30	4,67
340,51	-2,54
340,72	11,06
340,93	-4,05
341,15	-1,93
341,36	-4,42
341,57	1,88
341,78	11,06
341,99	3,11
342,20	4,05
342,41	-13,03
342,62	-7,29
342,84	-9,75
343,05	6,18
343,26	2,38
343,47	0,61
343,68	-0,49
343,89	-8,77
344,10	-9,26
344,31	1,88
344,53	6,51
344,74	-5,73
344,95	7,25
345,16	-8,60
345,37	2,13
345,58	0,33
345,79	6,47
346,00	0,66
346,21	-2,91
346,42	1,60
346,64	-10,16
346,85	6,47
347,06	-0,41
347,27	-6,80
347,48	2,46
347,69	-4,92
347,90	-2,79
348,11	-1,72
348,32	-2,50
348,53	2,99
348,75	-8,19
348,96	-9,30
349,17	-6,64
349,38	2,70
349,59	-0,08
349,80	-15,69
350,01	12,33
350,22	6,31
350,43	12,94
350,64	-1,97
350,85	16,47
351,06	-2,70
351,28	-4,38
351,49	-10,04
351,70	-11,06
351,91	5,45
352,12	-10,16
352,33	22,61
352,54	-5,45
352,75	2,33
352,96	-1,06
353,17	13,72
353,38	8,56
353,59	-2,54
353,80	4,42
354,01	-10,28
354,22	-0,74
354,44	-10,94
354,65	5,61
354,86	11,06
355,07	2,87
355,28	20,15
355,49	-5,20
355,70	3,93
355,91	6,10
356,12	-4,55
356,33	5,69
356,54	0,86
356,75	2,66
356,96	-10,57
357,17	1,80
357,38	0,90
357,59	4,46
357,80	-1,72
358,01	9,95
358,22	-0,12
358,43	5,08
358,64	8,44
358,85	-5,98
359,07	-11,26
359,28	-0,57
359,49	0,08
359,70	-8,64
359,91	5,94
360,12	2,13
360,33	9,42
360,54	5,61
360,75	6,76
360,96	-6,18
361,17	-1,52
361,38	2,05
361,59	-1,80
361,80	-3,15
362,01	10,57
362,22	-1,93
362,43	5,86
362,64	5,90
362,85	-2,42
363,06	2,58
363,27	-10,81
363,48	-7,00
363,69	-1,72
363,90	0,53
364,11	5,98
364,32	-1,39
364,53	-8,11
364,74	2,95
364,95	9,46
365,16	7,21
365,37	11,02
365,58	0,57
365,79	0,25
366,00	2,87
366,21	-2,87
366,42	-0,04
366,63	-4,34
366,84	10,24
367,05	-5,08
367,26	0,61
367,47	5,45
367,68	3,11
367,89	8,19
368,10	-2,46
368,31	-5,49
368,52	-5,24
368,73	-5,00
368,94	7,54
369,15	-5,32
369,36	1,23
369,57	2,21
369,78	-0,53
369,99	8,72
370,20	4,92
370,40	-0,41
370,61	-4,87
370,82	7,78
371,03	3,60
371,24	-0,33
371,45	-12,29
371,66	-0,45
371,87	-6,35
372,08	-9,09
372,29	13,48
372,50	1,97
372,71	-1,06
372,92	-7,50
373,13	-9,26
373,34	-6,72
373,55	4,01
373,76	-1,80
373,97	13,35
374,18	8,40
374,39	3,19
374,60	1,23
374,81	-5,98
375,01	12,16
375,22	5,00
375,43	-4,83
375,64	0,25
375,85	4,38
376,06	4,87
376,27	6,59
376,48	5,82
376,69	-9,67
376,90	-12,08
377,11	-0,25
377,32	10,08
377,53	3,89
377,74	7,25
377,94	7,99
378,15	-11,02
378,36	-4,38
378,57	-3,32
378,78	4,79
378,99	2,62
379,20	0,57
379,41	11,02
379,62	-8,97
379,83	-2,91
380,04	5,24
380,25	-4,01
380,45	7,91
380,66	2,25
380,87	1,47
381,08	1,72
381,29	6,84
381,50	2,09
381,71	-4,96
381,92	-5,90
382,13	-4,10
382,34	15,85
382,55	-1,64
382,75	2,38
382,96	-3,73
383,17	-5,28
383,38	3,52
383,59	-6,88
383,80	-2,05
384,01	8,44
384,22	3,85
384,43	6,64
384,63	-2,09
384,84	4,14
385,05	0,70
385,26	-1,80
385,47	-5,20
385,68	3,15
385,89	-1,35
386,10	6,88
386,30	-4,79
386,51	3,52
386,72	-2,87
386,93	16,51
387,14	-4,51
387,35	4,30
387,56	-11,71
387,77	-0,78
387,97	-0,08
388,18	1,93
388,39	4,30
388,60	-8,68
388,81	-5,78
389,02	5,12
389,23	-10,77
389,43	12,16
389,64	-16,30
389,85	-0,61
390,06	15,52
390,27	10,98
390,48	-14,79
390,69	0,53
390,89	-2,25
391,10	5,90
391,31	3,52
391,52	5,57
391,73	3,93
391,94	3,93
392,14	0,70
392,35	0,29
392,56	15,73
392,77	6,47
392,98	-5,86
393,19	-2,29
393,39	-9,38
393,60	-2,05
393,81	-10,61
394,02	2,38
394,23	-3,89
394,44	10,61
394,64	3,85
394,85	3,19
395,06	11,06
395,27	-2,29
395,48	0,98
395,69	5,28
395,89	-8,40
396,10	1,15
396,31	0,66
396,52	-7,78
396,73	-9,83
396,93	1,93
397,14	4,10
397,35	10,61
397,56	0,49
397,77	-0,41
397,97	13,07
398,18	-2,95
398,39	-1,80
398,60	-2,58
398,81	-8,97
399,01	-12,33
399,22	-9,87
399,43	-0,37
399,64	-6,76
399,85	-10,49
400,05	17,86
400,26	4,18
400,47	14,50
400,68	-4,63
400,89	7,58
401,09	-9,87
401,30	-2,46
401,51	8,31
401,72	3,48
401,93	-2,58
402,13	-7,00
402,34	22,12
402,55	-4,96
402,76	-5,49
402,96	-9,17
403,17	-0,29
403,38	6,80
403,59	8,60
403,80	1,52
404,00	-10,20
404,21	0,04
404,42	-1,88
404,63	-3,89
404,83	3,36
405,04	-2,74
405,25	12,70
405,46	-6,06
405,66	-3,85
405,87	10,69
406,08	6,72
406,29	5,28
406,49	5,28
406,70	6,39
406,91	5,65
407,12	-7,05
407,32	-12,49
407,53	-8,85
407,74	-10,28
407,95	5,86
408,15	4,67
408,36	4,51
408,57	-12,94
408,78	19,50
408,98	-11,51
409,19	3,85
409,40	7,09
409,61	-4,63
409,81	0,41
410,02	-9,91
410,23	-3,36
410,44	-1,80
410,64	-1,76
410,85	7,45
411,06	0,04
411,26	-0,49
411,47	-5,94
411,68	13,60
411,89	10,98
412,09	-4,42
412,30	3,56
412,51	-3,69
412,72	2,29
412,92	0,74
413,13	1,80
413,34	5,04
413,54	3,48
413,75	11,63
413,96	2,25
414,17	-2,25
414,37	2,25
414,58	-0,94
414,79	-3,77
414,99	13,43
415,20	3,07
415,41	-6,27
415,61	-1,31
415,82	-5,24
416,03	-4,01
416,24	-1,72
416,44	-3,73
416,65	7,58
416,86	2,70
417,06	10,36
417,27	-0,70
417,48	-1,19
417,68	4,75
417,89	8,85
418,10	5,32
418,30	0,94
418,51	10,04
418,72	4,34
418,92	-6,72
419,13	1,35
419,34	-4,26
419,55	4,92
419,75	6,59
419,96	5,86
420,17	-13,97
420,37	-4,87
420,58	14,34
420,79	8,31
420,99	4,55
421,20	-14,25
421,41	0,20
421,61	0,41
421,82	6,72
422,03	6,18
422,23	1,76
422,44	-13,60
422,65	11,47
422,85	-7,58
423,06	-4,55
423,26	-3,89
423,47	-4,34
423,68	-2,83
423,88	19,58
424,09	6,06
424,30	-3,93
424,50	0,78
424,71	-5,86
424,92	6,31
425,12	-3,52
425,33	-4,18
425,54	6,59
425,74	1,19
425,95	3,89
426,15	-2,50
426,36	-1,76
426,57	7,05
426,77	0,82
426,98	-9,75
427,19	11,10
427,39	-0,20
427,60	6,84
427,81	-3,89
428,01	-2,38
428,22	1,15
428,42	4,83
428,63	-8,19
428,84	0,29
429,04	0,57
429,25	5,28
429,45	2,42
429,66	-5,86
429,87	-3,15
430,07	1,23
430,28	1,35
430,49	-6,96
430,69	-0,90
430,90	-12,00
431,10	19,01
431,31	-7,17
431,52	-12,25
431,72	-3,65
431,93	3,89
432,13	7,13
432,34	6,64
432,55	0,82
432,75	-10,77
432,96	-4,96
433,16	-6,18
433,37	-1,39
433,58	-0,53
433,78	1,76
433,99	14,83
434,19	3,65
434,40	5,28
434,60	26,91
434,81	-1,19
435,02	-2,01
435,22	2,13
435,43	-7,41
435,63	-7,86
435,84	5,98
436,05	-3,56
436,25	11,06
436,46	4,14
436,66	7,05
436,87	-15,81
437,07	4,83
437,28	5,98
437,48	-13,39
437,69	15,32
437,90	-0,90
438,10	-7,37
438,31	-9,75
438,51	-6,88
438,72	0,25
438,92	-4,22
439,13	-5,20
439,34	-15,97
439,54	7,37
439,75	1,60
439,95	9,87
440,16	-1,31
440,36	-0,20
440,57	-20,03
440,77	3,28
440,98	8,44
441,18	6,06
441,39	5,65
441,60	0,20
441,80	-9,83
442,01	9,99
442,21	-2,33
442,42	-6,02
442,62	-2,83
442,83	4,34
443,03	-11,59
443,24	-7,99
443,44	-5,57
443,65	5,98
443,85	0,25
444,06	-8,27
444,26	2,79
444,47	18,35
444,67	8,07
444,88	12,29
445,09	-8,11
445,29	0,49
445,50	14,05
445,70	2,54
445,91	7,41
446,11	0,16
446,32	3,19
446,52	14,42
446,73	0,25
446,93	-21,83
447,14	-1,84
447,34	-9,26
447,55	8,31
447,75	9,22
447,96	1,31
448,16	-8,15
448,37	7,25
448,57	2,17
448,78	-0,86
448,98	-0,08
449,19	10,32
449,39	5,53
449,60	-5,12
449,80	2,29
450,01	-6,47
450,21	-16,42
450,42	-3,24
450,62	-0,04
450,83	7,17
451,03	4,75
451,23	2,38
451,44	3,69
451,64	-0,33
451,85	8,48
452,05	-1,06
452,26	2,50
452,46	5,49
452,67	7,82
452,87	0,98
453,08	8,77
453,28	-4,46
453,49	4,92
453,69	-6,72
453,90	-1,93
454,10	15,65
454,31	0,61
454,51	-2,74
454,71	4,30
454,92	-2,66
455,12	-0,98
455,33	12,82
455,53	0,33
455,74	6,02
455,94	10,20
456,15	2,09
456,35	7,78
456,55	6,84
456,76	15,36
456,96	-0,98
457,17	7,21
457,37	11,43
457,58	1,23
457,78	1,06
457,99	0,33
458,19	-3,73
458,39	-4,63
458,60	-0,90
458,80	5,04
459,01	-6,88
459,21	3,32
459,42	1,23
459,62	14,05
459,82	-7,78
460,03	-1,11
460,23	-2,25
460,44	6,84
460,64	-0,49
460,85	0,49
461,05	14,13
461,25	2,46
461,46	3,24
461,66	-9,83
461,87	0,37
462,07	-17,74
462,27	3,40
462,48	4,59
462,68	14,29
462,89	-0,37
463,09	3,60
463,29	3,40
463,50	-13,76
463,70	2,21
463,91	2,13
464,11	2,99
464,31	2,25
464,52	4,30
464,72	-6,51
464,93	-11,51
465,13	-0,37
465,33	-6,35
465,54	5,04
465,74	0,29
465,95	2,42
466,15	1,60
466,35	-0,16
466,56	-4,46
466,76	-8,40
466,96	-2,70
467,17	9,63
467,37	-2,54
467,58	7,50
467,78	-6,51
467,98	-5,94
468,19	-1,93
468,39	9,42
468,59	9,34
468,80	-7,21
469,00	3,15
469,21	-5,90
469,41	10,12
469,61	1,35
469,82	3,69
470,02	-2,17
470,22	2,62
470,43	3,56
470,63	-1,19
470,83	-1,60
471,04	10,08
471,24	6,18
471,45	-3,07
471,65	2,42
471,85	-2,09
472,06	-8,52
472,26	-1,23
472,46	-13,23
472,67	-7,09
472,87	-4,79
473,07	-5,04
473,28	13,48
473,48	-6,02
473,68	10,53
473,89	0,66
474,09	15,61
474,29	-10,28
474,50	-4,83
474,70	6,47
474,90	12,94
475,11	6,84
475,31	12,37
475,51	1,02
475,72	-7,54
475,92	-6,76
476,12	9,50
476,33	0,33
476,53	6,43
476,73	-13,97
476,93	5,94
477,14	11,84
477,34	7,74
477,54	4,42
477,75	-5,78
477,95	-20,44
478,15	7,82
478,36	-2,54
478,56	4,38
478,76	2,13
478,97	6,68
479,17	-0,04
479,37	-1,02
479,57	2,58
479,78	-11,06
479,98	0,94
480,18	3,11
480,39	0,61
480,59	2,99
480,79	-6,92
480,99	9,71
481,20	4,30
481,40	7,50
481,60	-7,91
481,81	0,98
482,01	3,28
482,21	4,05
482,41	-10,28
482,62	3,73
482,82	-13,27
483,02	-9,34
483,23	4,46
483,43	0,41
483,63	1,15
483,83	-3,97
484,04	12,12
484,24	3,89
484,44	-4,26
484,64	-3,24
484,85	-0,25
485,05	3,15
485,25	-9,01
485,45	-5,69
485,66	6,27
485,86	4,59
486,06	-4,38
486,26	1,60
486,47	7,09
486,67	-9,05
486,87	-6,92
487,07	0,37
487,28	0,86
487,48	-9,50
487,68	-6,96
487,88	-8,19
488,09	0,00
488,29	11,43
488,49	-8,48
488,69	13,52
488,90	-3,19
489,10	-10,53
489,30	4,46
489,50	6,23
489,71	-8,07
489,91	3,93
490,11	3,93
490,31	-2,13
490,52	2,58
490,72	-3,19
490,92	-5,94
491,12	2,87
491,32	12,45
491,53	-7,25
491,73	19,01
491,93	-9,75
492,13	7,91
492,33	-1,23
492,54	7,82
492,74	10,36
492,94	1,39
493,14	14,17
493,35	5,32
493,55	-4,38
493,75	-14,46
493,95	6,35
494,15	3,44
494,36	-7,45
494,56	-4,05
494,76	1,15
494,96	10,32
495,16	14,79
495,37	15,56
495,57	-2,29
495,77	-7,45
495,97	-9,01
496,17	5,49
496,37	5,12
496,58	3,19
496,78	-2,70
496,98	11,18
497,18	12,25
497,38	-5,53
497,59	13,31
497,79	0,98
497,99	6,92
498,19	1,43
498,39	8,27
498,59	-2,09
498,80	0,53
499,00	-1,56
499,20	-5,24
499,40	7,78
499,60	-5,28
499,80	-1,60
500,01	0,45
500,21	5,53
500,41	-2,74
500,61	2,54
500,81	3,36
501,01	2,21
501,22	2,29
501,42	2,87
501,62	8,72
501,82	13,31
502,02	-9,91
502,22	4,10
502,42	11,26
502,63	6,31
502,83	10,77
503,03	8,07
503,23	-1,97
503,43	-2,46
503,63	-1,19
503,83	-12,90
504,04	2,70
504,24	9,09
504,44	3,85
504,64	2,58
504,84	-4,38
505,04	-5,37
505,24	6,10
505,44	-1,23
505,65	-2,25
505,85	8,52
506,05	-5,94
506,25	0,98
506,45	-9,26
506,65	1,56
506,85	0,53
507,05	8,07
507,26	3,44
507,46	0,98
507,66	4,46
507,86	-12,12
508,06	-10,12
508,26	13,89
508,46	-0,53
508,66	15,07
508,86	-2,95
509,06	4,10
509,27	-5,73
509,47	-6,31
509,67	4,10
509,87	0,86
510,07	15,65
510,27	3,32
510,47	0,66
510,67	-2,42
510,87	-2,79
511,07	-8,85
511,28	7,95
511,48	-1,64
511,68	-13,35
511,88	4,63
512,08	-2,54
512,28	-6,59
512,48	5,04
512,68	1,02
512,88	1,11
513,08	7,37
513,28	-5,24
513,48	19,62
513,68	-2,17
513,89	10,44
514,09	8,89
514,29	15,11
514,49	-11,14
514,69	-6,55
514,89	2,83
515,09	9,50
515,29	-1,68
515,49	-4,30
515,69	3,60
515,89	-8,03
516,09	2,58
516,29	6,55
516,49	-9,22
516,69	3,56
516,89	-17,90
517,09	0,49
517,29	-11,02
517,50	-4,22
517,70	-3,15
517,90	-6,47
518,10	-0,45
518,30	-2,29
518,50	3,40
518,70	12,62
518,90	-5,98
519,10	-4,01
519,30	11,55
519,50	-12,37
519,70	10,36
519,90	-6,43
520,10	5,12
520,30	3,77
520,50	-4,18
520,70	22,65
520,90	-4,01
521,10	11,18
521,30	12,70
521,50	4,67
521,70	-2,50
521,90	-6,02
522,10	7,29
522,30	0,49
522,50	6,68
522,70	-5,20
522,90	9,79
523,10	3,15
523,30	6,18
523,50	11,14
523,70	11,76
523,90	-2,54
524,10	-3,11
524,30	12,08
524,50	-0,08
524,70	5,28
524,90	3,07
525,10	-8,77
525,30	-3,89
525,50	7,70
525,70	-7,37
525,90	6,02
526,10	13,64
526,30	-4,10
526,50	8,72
526,70	-13,15
526,90	4,71
527,10	-1,06
527,30	0,20
527,50	0,78
527,70	-6,27
527,90	-4,01
528,10	-4,55
528,30	4,05
528,50	-6,88
528,70	-5,37
528,90	1,60
529,10	8,07
529,30	5,57
529,50	3,11
529,70	-4,63
529,90	-3,11
530,10	-7,05
530,29	-5,90
530,49	4,79
530,69	1,23
530,89	5,98
531,09	14,75
531,29	-2,46
531,49	5,32
531,69	4,42
531,89	10,53
532,09	-1,52
532,29	10,98
532,49	5,53
532,69	-4,46
532,89	2,70
533,09	-7,37
533,29	-12,82
533,49	10,90
533,68	13,76
533,88	-3,19
534,08	7,54
534,28	5,37
534,48	-6,51
534,68	3,93
534,88	1,39
535,08	-1,93
535,28	-8,64
535,48	-6,80
535,68	-12,08
535,88	-1,11
536,08	0,86
536,27	8,48
536,47	-5,20
536,67	0,98
536,87	-5,32
537,07	-4,55
537,27	-2,25
537,47	5,45
537,67	-7,58
537,87	6,59
538,07	-11,51
538,27	-3,77
538,46	-0,78
538,66	-0,57
538,86	-0,82
539,06	6,18
539,26	-7,66
539,46	-0,16
539,66	-6,76
539,86	0,29
540,06	13,93
540,25	1,80
540,45	-4,71
540,65	11,02
540,85	-3,32
541,05	-1,43
541,25	4,96
541,45	11,84
541,65	0,78
541,85	8,40
542,04	-13,84
542,24	-0,49
542,44	-7,54
542,64	1,97
542,84	-6,68
543,04	3,28
543,24	-8,72
543,43	-1,43
543,63	2,42
543,83	-3,15
544,03	1,39
544,23	5,90
544,43	10,61
544,63	8,03
544,82	0,41
545,02	1,27
545,22	0,00
545,42	-13,43
545,62	-6,31
545,82	-0,33
546,02	8,07
546,21	-2,01
546,41	-6,14
546,61	5,37
546,81	-5,61
547,01	-2,66
547,21	-0,61
547,40	1,60
547,60	5,16
547,80	-8,07
548,00	0,98
548,20	-6,14
548,40	4,30
548,59	-5,57
548,79	4,38
548,99	-0,25
549,19	15,97
549,39	7,54
549,59	-2,87
549,78	8,11
549,98	2,99
550,18	-3,81
550,38	10,44
550,58	-7,21
550,77	12,37
550,97	22,00
551,17	10,12
551,37	1,39
551,57	11,63
551,76	-4,18
551,96	1,97
552,16	-5,53
552,36	-4,87
552,56	9,09
552,75	5,65
552,95	12,29
553,15	-2,46
553,35	-8,44
553,55	-15,44
553,74	-9,17
553,94	0,45
554,14	5,37
554,34	4,30
554,54	5,24
554,73	7,05
554,93	-5,20
555,13	0,74
555,33	-5,90
555,53	12,90
555,72	-1,39
555,92	-6,84
556,12	-3,48
556,32	4,18
556,51	-5,28
556,71	1,84
556,91	4,42
557,11	4,22
557,30	-11,02
557,50	-15,20
557,70	10,24
557,90	2,25
558,10	0,00
558,29	2,70
558,49	-1,47
558,69	-0,04
558,89	4,51
559,08	-4,92
559,28	-8,60
559,48	7,66
559,68	8,11
559,87	9,22
560,07	-9,67
560,27	11,80
560,47	-4,26
560,66	-1,93
560,86	-0,37
561,06	6,96
561,25	7,91
561,45	-7,45
561,65	14,87
561,85	-7,95
562,04	-7,62
562,24	5,16
562,44	-3,36
562,64	6,31
562,83	4,59
563,03	-7,54
563,23	-4,22
563,42	11,96
563,62	-8,60
563,82	-4,30
564,02	7,86
564,21	0,25
564,41	-0,41
564,61	11,26
564,80	9,63
565,00	-1,60
565,20	1,19
565,40	-5,24
565,59	9,26
565,79	2,42
565,99	-5,24
566,18	12,70
566,38	1,43
566,58	-0,12
566,78	13,03
566,97	-0,33
567,17	20,52
567,37	42,11
567,56	113,46
567,76	169,16
567,96	228,27
568,15	192,67
568,35	136,68
568,55	63,16
568,74	24,37
568,94	8,89
569,14	9,26
569,33	10,40
569,53	2,66
569,73	11,67
569,92	-8,27
570,12	-4,71
570,32	0,20
570,52	-2,21
570,71	-6,84
570,91	7,58
571,11	9,01
571,30	1,88
571,50	3,73
571,70	2,09
571,89	2,42
572,09	10,16
572,28	-8,68
572,48	16,71
572,68	4,38
572,87	-4,05
573,07	6,31
573,27	-5,16
573,46	14,09
573,66	-8,40
573,86	-1,84
574,05	1,60
574,25	14,09
574,45	7,91
574,64	10,12
574,84	-6,35
575,04	3,77
575,23	10,69
575,43	0,78
575,62	-1,72
575,82	6,80
576,02	5,41
576,21	-1,39
576,41	-1,43
576,61	-6,35
576,80	-4,55
577,00	3,32
577,19	-2,33
577,39	12,49
577,59	-3,65
577,78	1,47
577,98	8,36
578,18	4,87
578,37	3,15
578,57	-6,31
578,76	3,28
578,96	-3,28
579,16	-0,86
579,35	5,94
579,55	7,13
579,74	4,18
579,94	8,97
580,14	1,88
580,33	3,81
580,53	4,79
580,72	11,84
580,92	-1,64
581,12	-4,05
581,31	5,82
581,51	0,61
581,70	11,80
581,90	0,04
582,10	-2,13
582,29	2,21
582,49	7,78
582,68	1,88
582,88	8,03
583,07	-4,05
583,27	-3,56
583,47	-0,86
583,66	3,28
583,86	12,57
584,05	19,62
584,25	10,69
584,44	26,99
584,64	11,71
584,84	23,39
585,03	25,80
585,23	4,38
585,42	14,01
585,62	-0,70
585,81	22,32
586,01	24,13
586,20	12,33
586,40	10,73
586,60	30,06
586,79	33,55
586,99	108,46
587,18	2402,43
587,38	16138,08
587,57	47937,42
587,77	57277,67
587,96	61058,02
588,16	62642,86
588,35	63296,32
588,55	63495,63
588,75	63461,47
588,94	63105,17
589,14	62503,92
589,33	61187,65
589,53	59563,82
589,72	58363,55
589,92	57193,09
590,11	55017,66
590,31	51818,48
590,50	50716,14
590,70	49558,18
590,89	48963,45
591,09	48076,80
591,28	47537,57
591,48	46787,57
591,67	43507,58
591,87	42552,65
592,06	42376,98
592,26	41959,60
592,45	40005,02
592,65	39728,55
592,84	38362,88
593,04	37201,48
593,23	33693,43
593,43	30609,06
593,62	19109,31
593,82	13149,80
594,01	6685,92
594,21	1171,52
594,40	51,81
594,60	41,37
594,79	31,66
594,99	34,57
595,18	36,78
595,38	17,49
595,57	35,10
595,77	22,28
595,96	36,66
596,16	23,55
596,35	30,31
596,55	13,68
596,74	24,58
596,94	4,55
597,13	22,36
597,33	21,79
597,52	9,50
597,72	16,38
597,91	21,22
598,11	13,19
598,30	7,78
598,50	6,76
598,69	9,22
598,88	-3,77
599,08	14,38
599,27	13,07
599,47	14,50
599,66	4,14
599,86	22,57
600,05	9,50
600,25	1,52
600,44	10,16
600,64	-1,93
600,83	9,99
601,02	-1,31
601,22	-0,25
601,41	2,29
601,61	5,65
601,80	14,54
602,00	10,04
602,19	-2,01
602,38	12,29
602,58	-4,63
602,77	8,52
602,97	12,00
603,16	1,39
603,36	5,98
603,55	11,67
603,74	5,86
603,94	0,66
604,13	10,44
604,33	8,11
604,52	10,69
604,72	9,75
604,91	0,57
605,10	8,64
605,30	3,24
605,49	11,51
605,69	-4,87
605,88	1,39
606,07	-9,09
606,27	5,86
606,46	4,46
606,66	-2,54
606,85	9,75
607,04	0,74
607,24	8,40
607,43	9,38
607,63	-7,62
607,82	17,90
608,01	12,29
608,21	-0,61
608,40	6,35
608,60	-3,24
608,79	-4,22
608,98	16,22
609,18	8,56
609,37	8,48
609,57	9,79
609,76	7,50
609,95	0,41
610,15	1,84
610,34	2,33
610,53	-0,49
610,73	-0,82
610,92	1,76
611,11	8,19
611,31	0,37
611,50	2,21
611,70	4,92
611,89	2,05
612,08	-0,86
612,28	5,94
612,47	-2,62
612,66	9,34
612,86	-2,91
613,05	5,49
613,24	-10,28
613,44	6,23
613,63	1,84
613,82	0,61
614,02	6,47
614,21	17,53
614,41	1,64
614,60	2,29
614,79	9,95
614,99	7,13
615,18	2,66
615,37	12,62
615,57	19,21
615,76	1,60
615,95	14,62
616,15	5,86
616,34	-0,82
616,53	-5,65
616,73	0,78
616,92	6,31
617,11	8,48
617,30	7,74
617,50	7,54
617,69	-1,52
617,88	5,28
618,08	-0,29
618,27	-0,90
618,46	-17,86
618,66	-1,52
618,85	7,09
619,04	-7,25
619,24	-0,29
619,43	-4,59
619,62	-0,12
619,82	10,73
620,01	-2,74
620,20	9,34
620,39	-8,93
620,59	7,54
620,78	0,49
620,97	-2,01
621,17	2,17
621,36	12,94
621,55	5,90
621,74	4,67
621,94	5,24
622,13	8,89
622,32	4,79
622,52	2,46
622,71	11,51
622,90	-4,87
623,09	0,78
623,29	-4,01
623,48	5,53
623,67	6,80
623,86	-1,23
624,06	12,16
624,25	0,78
624,44	-4,96
624,64	0,61
624,83	12,74
625,02	4,75
625,21	19,78
625,41	8,48
625,60	-3,19
625,79	5,49
625,98	-8,07
626,18	-10,98
626,37	-1,39
626,56	0,78
626,75	-0,20
626,95	8,81
627,14	-14,91
627,33	14,21
627,52	18,15
627,72	5,98
627,91	17,41
628,10	1,31
628,29	7,33
628,49	6,35
628,68	-2,66
628,87	-1,27
629,06	9,54
629,25	6,47
629,45	10,49
629,64	-6,18
629,83	6,59
630,02	4,18
630,22	2,66
630,41	5,45
630,60	8,48
630,79	1,15
630,98	-2,29
631,18	5,16
631,37	9,46
631,56	-9,38
631,75	-9,22
631,94	-1,35
632,14	12,74
632,33	23,67
632,52	10,08
632,71	2,46
632,90	-0,33
633,10	9,50
633,29	13,03
633,48	4,92
633,67	-3,48
633,86	-3,11
634,06	11,96
634,25	-16,34
634,44	-1,97
634,63	0,49
634,82	8,03
635,02	6,10
635,21	0,00
635,40	-1,27
635,59	-2,13
635,78	5,98
635,97	-8,72
636,17	4,26
636,36	4,87
636,55	6,02
636,74	11,02
636,93	-0,41
637,12	-0,41
637,32	-5,57
637,51	-1,64
637,70	2,46
637,89	10,69
638,08	0,78
638,27	7,66
638,47	10,77
638,66	-4,10
638,85	1,64
639,04	-0,49
639,23	-0,20
639,42	0,00
639,62	0,86
639,81	0,37
640,00	-0,94
640,19	12,25
640,38	1,06
640,57	-5,98
640,76	0,37
640,95	-3,56
641,15	8,60
641,34	-4,01
641,53	7,86
641,72	1,97
641,91	-13,93
642,10	14,62
642,29	14,70
642,49	0,08
642,68	2,46
642,87	1,72
643,06	-0,29
643,25	-3,24
643,44	1,52
643,63	12,33
643,82	1,97
644,01	-11,84
644,21	-4,87
644,40	3,07
644,59	6,47
644,78	-2,50
644,97	16,71
645,16	4,87
645,35	17,04
645,54	5,57
645,73	8,19
645,92	4,59
646,12	-6,47
646,31	-10,08
646,50	-11,76
646,69	8,72
646,88	4,38
647,07	5,57
647,26	4,87
647,45	2,54
647,64	5,86
647,83	20,07
648,02	-5,61
648,22	-13,97
648,41	1,35
648,60	0,70
648,79	-9,34
648,98	-2,38
649,17	2,79
649,36	-11,76
649,55	-4,51
649,74	-4,46
649,93	-2,09
650,12	2,33
650,31	-0,61
650,50	-2,95
650,69	5,04
650,88	-0,04
651,08	-5,20
651,27	-0,29
651,46	6,27
651,65	12,70
651,84	-8,97
652,03	3,65
652,22	2,46
652,41	13,84
652,60	-1,39
652,79	-0,41
652,98	6,43
653,17	14,83
653,36	20,40
653,55	-1,06
653,74	1,02
653,93	2,74
654,12	-2,29
654,31	4,05
654,50	-12,25
654,69	3,40
654,88	4,10
655,07	9,22
655,26	-0,29
655,45	5,94
655,64	-1,47
655,83	-4,42
656,02	0,94
656,21	8,97
656,40	0,49
656,59	6,80
656,78	7,99
656,97	-5,65
657,17	-11,30
657,36	-4,22
657,55	-2,38
657,74	-4,75
657,93	-6,39
658,12	2,01
658,31	8,19
658,50	8,31
658,69	4,46
658,87	-5,69
659,06	0,61
659,25	-3,44
659,44	-7,09
659,63	4,79
659,82	6,92
660,01	-3,28
660,20	3,07
660,39	6,27
660,58	-3,56
660,77	-7,09
660,96	-6,06
661,15	1,15
661,34	5,73
661,53	-2,79
661,72	-0,57
661,91	6,06
662,10	3,32
662,29	-4,42
662,48	9,99
662,67	6,06
662,86	0,29
663,05	8,40
663,24	15,61
663,43	7,78
663,62	-16,59
663,81	-5,00
664,00	8,48
664,19	11,80
664,38	0,66
664,57	-6,88
664,76	-2,50
664,94	-3,44
665,13	-0,66
665,32	-5,32
665,51	1,31
665,70	5,20
665,89	9,42
666,08	1,15
666,27	1,97
666,46	4,46
666,65	-0,29
666,84	0,20
667,03	-8,60
667,22	-4,18
667,41	-0,49
667,60	2,01
667,78	-1,19
667,97	8,81
668,16	7,05
668,35	-13,07
668,54	11,06
668,73	-4,87
668,92	5,41
669,11	0,08
669,30	3,97
669,49	-7,41
669,68	-11,10
669,86	17,94
670,05	-16,22
670,24	1,80
670,43	2,54
670,62	-7,54
670,81	4,38
671,00	-1,52
671,19	-1,35
671,38	6,51
671,57	-6,64
671,75	-3,07
671,94	-1,68
672,13	-10,04
672,32	10,77
672,51	7,54
672,70	-8,85
672,89	6,59
673,08	14,70
673,26	18,43
673,45	6,96
673,64	7,99
673,83	-3,15
674,02	-4,87
674,21	-6,18
674,40	0,08
674,59	-2,46
674,77	-3,48
674,96	22,20
675,15	0,12
675,34	-4,38
675,53	1,64
675,72	10,69
675,91	-3,28
676,09	-4,96
676,28	-3,85
676,47	-8,97
676,66	-0,08
676,85	2,01
677,04	-1,06
677,22	4,55
677,41	3,97
677,60	-2,42
677,79	13,39
677,98	-5,82
678,17	-10,32
678,36	5,00
678,54	4,51
678,73	0,04
678,92	3,73
679,11	-7,37
679,30	12,12
679,48	0,45
679,67	7,17
679,86	-2,13
680,05	-14,50
680,24	-5,37
680,43	-2,29
680,61	-12,33
680,80	13,68
680,99	-2,91
681,18	-3,11
681,37	-10,08
681,55	-8,36
681,74	-13,15
681,93	0,29
682,12	-4,67
682,31	6,14
682,49	-0,25
682,68	-5,28
682,87	-0,33
683,06	-1,11
683,25	-0,70
683,43	2,29
683,62	11,14
683,81	5,98
684,00	-4,67
684,19	-8,64
684,37	0,86
684,56	-1,43
684,75	7,70
684,94	-5,69
685,12	-5,82
685,31	7,13
685,50	-9,22
685,69	5,41
685,88	0,66
686,06	-2,29
686,25	2,95
686,44	3,19
686,63	4,18
686,81	-10,12
687,00	10,90
687,19	21,46
687,38	7,74
687,56	2,01
687,75	-0,41
687,94	-8,72
688,13	18,15
688,31	-1,06
688,50	-9,05
688,69	-1,23
688,88	-11,02
689,06	9,01
689,25	-3,36
689,44	-8,93
689,63	-7,17
689,81	-3,81
690,00	1,88
690,19	9,09
690,38	-8,19
690,56	5,28
690,75	-7,17
690,94	10,53
691,13	-2,79
691,31	3,81
691,50	5,24
691,69	-13,19
691,87	1,11
692,06	18,60
692,25	-5,45
692,44	-12,78
692,62	-3,40
692,81	0,29
693,00	-2,13
693,18	12,08
693,37	9,17
693,56	-5,12
693,75	2,87
693,93	-3,24
694,12	3,40
694,31	-5,45
694,49	-2,95
694,68	1,19
694,87	-7,95
695,05	1,80
695,24	12,45
695,43	5,53
695,62	-3,48
695,80	13,52
695,99	18,72
696,18	9,63
696,36	13,60
696,55	7,82
696,74	-9,34
696,92	-11,30
697,11	7,91
697,30	12,94
697,48	2,79
697,67	-0,37
697,86	-7,99
698,04	2,42
698,23	3,36
698,42	11,76
698,60	-14,50
698,79	-6,27
698,98	-5,73
699,16	-5,08
699,35	-3,24
699,54	2,46
699,72	-3,52
699,91	2,25
700,10	5,04
700,28	5,16
700,47	-2,21
700,66	-1,93
700,84	-8,07
701,03	0,61
701,21	-3,97
701,40	7,33
701,59	-0,82
701,77	8,15
701,96	2,01
702,15	1,47
702,33	1,56
702,52	-1,72
702,71	-13,48
702,89	10,44
703,08	-12,12
703,26	6,76
703,45	-2,87
703,64	-11,18
703,82	16,38
704,01	-4,79
704,20	-7,74
704,38	-19,58
704,57	1,60
704,75	1,84
704,94	4,96
705,13	8,64
705,31	-6,55
705,50	-9,99
705,68	2,54
705,87	16,47
706,06	1,35
706,24	-7,95
706,43	16,18
706,61	9,01
706,80	-9,58
706,99	-2,29
707,17	-6,02
707,36	-3,89
707,54	3,56
707,73	-5,37
707,92	2,13
708,10	-0,74
708,29	0,82
708,47	-4,92
708,66	9,83
708,84	-1,43
709,03	7,78
709,22	-2,83
709,40	-4,51
709,59	2,33
709,77	11,63
709,96	3,40
710,14	5,04
710,33	3,60
710,52	6,88
710,70	15,97
710,89	5,57
711,07	10,16
711,26	31,62
711,44	7,78
711,63	0,25
711,81	-5,04
712,00	12,33
712,19	2,05
712,37	2,05
712,56	0,70
712,74	-7,21
712,93	2,13
713,11	-2,29
713,30	-22,53
713,48	8,89
713,67	5,24
713,85	4,10
714,04	-1,23
714,22	7,45
714,41	13,07
714,59	9,01
714,78	1,72
714,97	10,77
715,15	1,76
715,34	-6,18
715,52	4,55
715,71	8,27
715,89	7,62
716,08	-1,19
716,26	-0,90
716,45	2,25
716,63	-1,35
716,82	3,93
717,00	0,37
717,19	5,65
717,37	1,02
717,56	-5,69
717,74	-1,02
717,93	8,89
718,11	15,15
718,30	10,90
718,48	5,41
718,67	8,23
718,85	3,19
719,04	9,17
719,22	-8,85
719,41	-2,29
719,59	2,99
719,78	-3,85
719,96	4,71
720,15	5,57
720,33	-5,53
720,52	-7,00
720,70	16,47
720,88	-2,01
721,07	4,83
721,25	4,14
721,44	-1,52
721,62	-8,36
721,81	5,24
721,99	3,60
722,18	9,17
722,36	6,84
722,55	-3,89
722,73	-11,02
722,92	5,90
723,10	-2,17
723,28	-9,99
723,47	10,24
723,65	6,68
723,84	-0,16
724,02	-10,28
724,21	-7,99
724,39	-2,09
724,58	3,48
724,76	11,47
724,94	-1,06
725,13	9,05
725,31	4,46
725,50	-3,07
725,68	-11,39
725,87	-13,48
726,05	4,05
726,23	12,57
726,42	-4,71
726,60	1,15
726,79	-7,25
726,97	16,18
727,16	-0,90
727,34	4,14
727,52	4,79
727,71	-6,92
727,89	-5,69
728,08	0,98
728,26	5,41
728,44	-7,29
728,63	1,60
728,81	-1,68
729,00	3,97
729,18	9,95
729,36	13,84
729,55	12,00
729,73	-0,94
729,92	6,96
730,10	-6,43
730,28	-2,79
730,47	4,30
730,65	-14,34
730,84	-8,56
731,02	-13,19
731,20	0,78
731,39	-8,36
731,57	-1,35
731,75	-7,17
731,94	9,05
732,12	4,96
732,31	-0,61
732,49	8,07
732,67	7,54
732,86	3,69
733,04	-8,68
733,22	-3,89
733,41	-2,58
733,59	-15,69
733,78	-3,48
733,96	2,54
734,14	4,96
734,33	-5,49
734,51	8,64
734,69	5,49
734,88	4,38
735,06	4,01
735,24	-5,41
735,43	-7,05
735,61	-8,07
735,79	-5,12
735,98	3,15
736,16	0,04
736,34	-0,16
736,53	-4,92
736,71	-2,83
736,89	-1,72
737,08	-8,60
737,26	-8,19
737,44	13,97
737,63	26,13
737,81	0,61
737,99	4,55
738,18	2,58
738,36	-3,89
738,54	11,43
738,73	5,86
738,91	-2,58
739,09	7,70
739,28	9,13
739,46	5,16
739,64	8,68
739,82	-0,20
740,01	5,16
740,19	0,25
740,37	-0,78
740,56	5,45
740,74	-8,72
740,92	9,75
741,11	7,82
741,29	2,91
741,47	-3,52
741,65	-4,22
741,84	-0,41
742,02	-1,60
742,20	0,25
742,39	12,00
742,57	-2,46
742,75	4,18
742,93	-2,66
743,12	-6,72
743,30	0,12
743,48	-7,21
743,67	11,22
743,85	-12,04
744,03	-0,98
744,21	6,43
744,40	5,37
744,58	-1,23
744,76	1,80
744,94	3,15
745,13	-14,13
745,31	-4,10
745,49	-2,70
745,67	-0,66
745,86	10,73
746,04	7,58
746,22	0,53
746,40	-10,04
746,59	-5,90
746,77	1,52
746,95	13,64
747,13	9,91
747,32	10,28
747,50	1,97
747,68	-9,71
747,86	2,79
748,05	14,58
748,23	7,74
748,41	7,25
748,59	2,95
748,77	2,91
748,96	0,25
749,14	-1,06
749,32	4,34
749,50	0,98
749,69	9,01
749,87	-13,43
750,05	19,99
750,23	14,62
750,41	6,68
750,60	15,07
750,78	15,20
750,96	0,61
751,14	6,64
751,32	4,75
751,51	8,56
751,69	-5,65
751,87	4,18
752,05	7,62
752,23	-1,97
752,42	0,70
752,60	-2,05
752,78	-2,46
752,96	-6,14
753,14	-8,27
753,33	-8,36
753,51	0,74
753,69	-7,00
753,87	1,15
754,05	11,35
754,23	-3,85
754,42	-3,44
754,60	-0,86
754,78	4,83
754,96	3,81
755,14	-2,91
755,32	-1,84
755,51	1,19
755,69	-2,54
755,87	7,41
756,05	-10,24
756,23	-5,69
756,41	-8,77
756,60	-9,30
756,78	-2,74
756,96	-11,55
757,14	1,06
757,32	0,04
757,50	2,42
757,68	-2,42
757,87	11,59
758,05	7,54
758,23	-3,77
758,41	-0,66
758,59	3,73
758,77	-4,96
758,95	-12,41
759,14	7,41
759,32	10,16
759,50	9,79
759,68	-7,25
759,86	2,05
760,04	5,12
760,22	-0,98
760,40	-6,76
760,59	-7,70
760,77	-3,56
760,95	-6,06
761,13	-2,95
761,31	12,57
761,49	10,53
761,67	16,79
761,85	1,43
762,03	2,66
762,22	19,05
762,40	42,11
762,58	121,08
762,76	255,79
762,94	302,73
763,12	271,72
763,30	140,49
763,48	50,91
763,66	16,30
763,84	17,49
764,02	11,30
764,21	3,73
764,39	6,92
764,57	-10,04
764,75	4,67
764,93	6,88
765,11	-16,51
765,29	1,02
765,47	-1,52
765,65	0,90
765,83	2,70
766,01	7,21
766,19	1,76
766,37	2,95
766,56	-7,09
766,74	2,66
766,92	-1,84
767,10	-7,95
767,28	5,20
767,46	5,37
767,64	11,30
767,82	-8,07
768,00	9,13
768,18	-10,08
768,36	1,47
768,54	-12,12
768,72	-0,57
768,90	-3,44
769,08	-11,30
769,26	6,18
769,44	17,98
769,62	-2,70
769,80	-4,67
769,98	6,92
770,16	1,47
770,34	-0,25
770,52	-4,38
770,71	-2,91
770,89	1,19
771,07	9,09
771,25	6,92
771,43	14,25
771,61	15,97
771,79	25,72
771,97	21,38
772,15	22,94
772,33	14,70
772,51	-2,50
772,69	10,81
772,87	-2,33
773,05	-1,60
773,23	-1,84
773,41	-12,45
773,59	-16,10
773,77	-13,15
773,95	3,24
774,13	10,32
774,31	-9,09
774,49	-3,81
774,67	-2,99
774,85	7,66
775,03	-7,45
775,21	-5,08
775,39	0,82
775,57	0,20
775,75	6,39
775,93	5,28
776,10	-10,69
776,28	-15,32
776,46	-5,12
776,64	1,27
776,82	-3,93
777,00	9,75
777,18	-6,23
777,36	-1,35
777,54	2,83
777,72	1,27
777,90	-5,12
778,08	-4,10
778,26	-9,09
778,44	3,03
778,62	3,81
778,80	-6,64
778,98	4,87
779,16	-2,99
779,34	-2,83
779,52	0,94
779,70	3,03
779,88	10,81
780,05	3,89
780,23	3,60
780,41	2,70
780,59	-3,32
780,77	-7,25
780,95	-4,75
781,13	13,68
781,31	-0,12
781,49	1,76
781,67	0,25
781,85	1,97
782,03	-10,20
782,21	2,21
782,39	3,60
782,56	-1,80
782,74	-15,81
782,92	-5,86
783,10	14,95
783,28	-3,19
783,46	0,74
783,64	-8,68
783,82	8,89
784,00	-3,24
784,18	1,11
784,35	-2,13
784,53	-2,54
784,71	0,98
784,89	2,42
785,07	8,31
785,25	6,80
785,43	14,01
785,61	1,68
785,79	-0,82
785,96	-5,32
786,14	0,00
786,32	0,37
786,50	14,83
786,68	3,93
786,86	-6,64
787,04	11,55
787,22	-2,29
787,39	5,24
787,57	3,44
787,75	-0,78
787,93	-5,98
788,11	0,33
788,29	-13,19
788,47	6,64
788,65	-13,03
788,82	-3,19
789,00	-7,37
789,18	5,98
789,36	6,55
789,54	3,52
789,72	12,82
789,89	0,20
790,07	3,73
790,25	-6,43
790,43	1,02
790,61	2,79
790,79	-0,41
790,96	-0,74
791,14	5,16
791,32	-0,29
791,50	2,62
791,68	4,92
791,86	9,99
792,03	-10,40
792,21	6,88
792,39	18,31
792,57	-5,45
792,75	-1,97
792,93	2,74
793,10	-3,60
793,28	-1,43
793,46	15,03
793,64	9,95
793,82	-2,09
793,99	2,25
794,17	2,83
794,35	21,38
794,53	12,16
794,71	5,61
794,88	15,61
795,06	4,83
795,24	-1,68
795,42	-0,66
795,60	-1,64
795,77	14,87
795,95	-7,25
796,13	7,45
796,31	-1,35
796,49	2,99
796,66	-9,01
796,84	2,66
797,02	2,46
797,20	-5,37
797,37	6,06
797,55	10,12
797,73	-2,54
797,91	-3,69
798,08	-6,14
798,26	3,07
798,44	1,52
798,62	4,10
798,80	11,51
798,97	-4,96
799,15	-8,52
799,33	-1,43
799,51	1,97
799,68	1,72
799,86	-3,32
800,04	15,77
800,22	13,76
800,39	-3,28
800,57	8,77
800,75	-7,13
800,93	23,96
801,10	5,28
801,28	7,33
801,46	10,04
801,63	14,34
801,81	-4,46
801,99	1,56
802,17	-5,65
802,34	-3,15
802,52	4,79
802,70	11,43
802,88	-6,59
803,05	-0,16
803,23	5,78
803,41	13,97
803,58	2,58
803,76	-1,68
803,94	6,43
804,12	-0,16
804,29	3,85
804,47	-0,25
804,65	-12,57
804,82	-2,91
805,00	8,89
805,18	9,54
805,35	8,48
805,53	2,38
805,71	1,35
805,89	4,14
806,06	7,78
806,24	7,13
806,42	3,93
806,59	2,99
806,77	8,85
806,95	5,32
807,12	-7,25
807,30	-8,07
807,48	8,72
807,65	0,90
807,83	9,17
808,01	5,16
808,18	-8,85
808,36	9,71
808,54	5,90
808,71	-5,94
808,89	-4,75
809,07	-3,03
809,24	7,25
809,42	-7,74
809,60	3,19
809,77	6,64
809,95	7,82
810,13	6,96
810,30	22,53
810,48	26,38
810,66	73,44
810,83	94,25
811,01	119,27
811,18	72,46
811,36	56,65
811,54	19,46
811,71	10,32
811,89	2,05
812,07	9,67
812,24	9,50
812,42	-8,19
812,59	9,79
812,77	5,00
812,95	7,21
813,12	-0,98
813,30	1,68
813,48	8,93
813,65	1,88
813,83	0,00
814,00	-1,60
814,18	1,64
814,36	5,53
814,53	3,36
814,71	1,11
814,88	-0,66
815,06	-2,33
815,24	-2,66
815,41	-0,29
815,59	-2,33
815,76	-4,30
815,94	3,81
816,12	0,29
816,29	-6,72
816,47	-0,08
816,64	7,62
816,82	-2,21
817,00	13,60
817,17	46,69
817,35	108,38
817,52	244,32
817,70	373,84
817,87	356,35
818,05	381,37
818,23	396,57
818,40	701,18
818,58	1088,86
818,75	1599,09
818,93	1539,91
819,10	1414,86
819,28	830,53
819,46	350,61
819,63	99,53
819,81	39,24
819,98	21,67
820,16	12,82
820,33	14,58
820,51	12,78
820,68	12,04
820,86	13,80
821,03	12,94
821,21	12,78
821,39	0,90
821,56	8,68
821,74	7,70
821,91	7,05
822,09	2,46
822,26	0,98
822,44	1,02
822,61	13,89
822,79	-0,16
822,96	2,58
823,14	-2,50
823,31	5,28
823,49	5,98
823,66	-3,85
823,84	6,84
824,01	-4,18
824,19	-4,87
824,36	16,18
824,54	-7,62
824,71	4,01
824,89	-1,47
825,06	-9,38
825,24	1,19
825,41	1,47
825,59	9,42
825,76	-0,61
825,94	3,15
826,11	-11,67
826,29	-6,84
826,46	5,53
826,64	11,63
826,81	-1,68
826,99	3,11
827,16	2,87
827,34	-6,14
827,51	-2,21
827,69	-3,03
827,86	5,98
828,04	-1,64
828,21	-1,56
828,39	19,46
828,56	-3,81
828,74	2,25
828,91	0,29
829,09	-3,11
829,26	-4,26
829,43	-2,21
829,61	4,55
829,78	19,82
829,96	16,83
830,13	15,36
830,31	-17,82
830,48	-5,12
830,66	-6,18
830,83	-1,31
831,01	10,69
831,18	-4,01
831,35	12,66
831,53	-4,30
831,70	-5,24
831,88	0,45
832,05	10,32
832,23	-7,82
832,40	-6,51
832,57	-9,79
832,75	3,40
832,92	-11,51
833,10	7,95
833,27	-6,68
833,45	-10,36
833,62	0,37
833,79	-2,79
833,97	1,84
834,14	8,85
834,32	-11,35
834,49	4,26
834,66	0,25
834,84	-7,25
835,01	13,31
835,19	-2,95
835,36	-6,59
835,53	-8,77
835,71	-8,19
835,88	3,19
836,06	-2,62
836,23	-10,94
836,40	11,63
836,58	4,01
836,75	12,00
836,93	11,51
837,10	2,58
837,27	-10,85
837,45	-2,62
837,62	3,15
837,79	4,30
837,97	7,70
838,14	6,72
838,32	-3,07
838,49	-13,48
838,66	2,66
838,84	7,17
839,01	8,85
839,18	8,85
839,36	2,13
839,53	-5,20
839,70	-3,60
839,88	0,41
840,05	-0,08
840,23	-3,77
840,40	10,36
840,57	11,51
840,75	3,19
840,92	5,69
841,09	-4,30
841,27	3,28
841,44	9,54
841,61	9,50
841,79	6,72
841,96	10,98
842,13	1,84
842,31	6,47
842,48	9,54
842,65	-7,66
842,83	-4,10
843,00	4,38
843,17	3,24
843,35	-4,10
843,52	5,65
843,69	0,53
843,86	-0,12
844,04	12,53
844,21	5,16
844,38	-15,89
844,56	8,64
844,73	-6,14
844,90	3,28
845,08	-4,59
845,25	6,84
845,42	8,40
845,60	0,41
845,77	-4,67
845,94	6,47
846,11	15,36
846,29	12,94
846,46	1,35
846,63	-8,85
846,81	-3,07
846,98	5,78
847,15	-7,95
847,32	-4,79
847,50	-10,04
847,67	5,24
847,84	-3,52
848,01	8,07
848,19	-1,47
848,36	1,52
848,53	-6,14
848,71	3,52
848,88	-8,60
849,05	12,98
849,22	2,62
849,40	3,19
849,57	5,20
849,74	-12,08
849,91	-0,78
850,09	9,95
850,26	-5,53
850,43	-3,81
850,60	-6,23
850,78	8,60
850,95	5,45
851,12	4,87
851,29	2,91
851,47	1,31
851,64	-5,04
851,81	-10,81
851,98	-0,08
852,15	2,66
852,33	-19,58
852,50	-0,90
852,67	1,93
852,84	-0,78
853,02	-3,19
853,19	1,19
853,36	0,20
853,53	-24,08
853,70	4,46
853,88	-2,33
854,05	2,83
854,22	-9,79
854,39	1,97
854,56	0,78
854,74	-10,32
854,91	7,54
855,08	-5,69
855,25	9,50
855,42	-10,94
855,60	2,66
855,77	3,19
855,94	8,36
856,11	-2,13
856,28	4,30
856,46	6,06
856,63	-0,98
856,80	7,37
856,97	-8,48
857,14	3,24
857,31	19,13
857,49	-5,98
857,66	1,31
857,83	-3,48
858,00	3,77
858,17	6,80
858,34	1,68
858,52	1,11
858,69	-4,42
858,86	12,37
859,03	1,19
859,20	-8,72
859,37	10,28
859,55	8,19
859,72	8,03
859,89	18,31
860,06	-7,41
860,23	-14,17
860,40	-1,27
860,57	-4,92
860,75	-4,51
860,92	2,13
861,09	-4,87
861,26	8,72
861,43	-9,58
861,60	-4,38
861,77	-9,91
861,95	1,80
862,12	-2,91
862,29	4,18
862,46	-7,09
862,63	4,63
862,80	-0,74
862,97	1,39
863,14	10,32
863,31	-2,58
863,49	7,33
863,66	-17,41
863,83	15,61
864,00	-2,62
864,17	-2,17
864,34	10,04
864,51	3,44
864,68	-2,21
864,85	-2,91
865,02	12,70
865,20	-10,20
865,37	-5,65
865,54	0,61
865,71	4,05
865,88	-6,31
866,05	-5,37
866,22	3,93
866,39	1,06
866,56	1,02
866,73	2,99
866,90	-12,29
867,07	10,57
867,25	-3,73
867,42	6,64
867,59	8,36
867,76	8,60
867,93	1,56
868,10	1,31
868,27	-2,74
868,44	-12,78
868,61	1,19
868,78	-7,86
868,95	14,42
869,12	7,41
869,29	12,86
869,46	-10,40
869,63	4,79
869,80	0,49
869,97	-6,02
870,14	-9,67
870,32	7,82
870,49	-9,09
870,66	1,39
870,83	10,57
871,00	-17,53
871,17	-0,90
871,34	-4,22
871,51	7,86
871,68	-7,58
871,85	2,50
872,02	2,79
872,19	16,88
872,36	2,58
872,53	7,74
872,70	-0,20
872,87	10,81
873,04	-17,28
873,21	9,95
873,38	1,93
873,55	-1,52
873,72	-6,84
873,89	-3,69
874,06	5,61
874,23	9,09
874,40	-10,85
874,57	-6,51
874,74	2,91
874,91	-5,08
875,08	3,19
875,25	-17,28
875,42	-14,17
875,59	0,33
875,76	9,95
875,93	-4,96
876,10	17,74
876,27	-10,36
876,44	2,95
876,61	2,25
876,78	-8,23
876,95	16,18
877,12	-7,09
877,29	2,70
877,46	9,91
877,62	-2,99
877,79	-0,08
877,96	-11,22
878,13	5,16
878,30	-1,23
878,47	7,17
878,64	0,20
878,81	-7,41
878,98	12,82
879,15	1,19
879,32	11,84
879,49	2,38
879,66	4,10
879,83	-1,64
880,00	6,14
880,17	-2,62
880,34	9,09
880,51	3,24
880,67	5,28
880,84	2,05
881,01	-9,22
881,18	-3,77
881,35	-4,26
881,52	4,26
881,69	6,72
881,86	-14,46
882,03	11,71
882,20	3,81
882,37	-1,60
882,54	-10,57
882,70	5,37
882,87	7,33
883,04	-16,18
883,21	16,75
883,38	-1,43
883,55	9,09
883,72	-7,37
883,89	5,86
884,06	0,70
884,23	4,71
884,39	-8,15
884,56	-1,88
884,73	-7,78
884,90	1,23
885,07	12,45
885,24	-13,31
885,41	12,41
885,58	-0,33
885,74	-5,00
885,91	-9,05
886,08	-2,58
886,25	2,91
886,42	3,56
886,59	-11,76
886,76	-0,90
886,93	0,20
887,09	14,17
887,26	4,67
887,43	3,03
887,60	-5,20
887,77	-1,27
887,94	-9,83
888,10	-7,45
888,27	-0,08
888,44	-0,90
888,61	-9,79
888,78	-5,28
888,95	-3,97
889,12	-6,06
889,28	6,47
889,45	3,81
889,62	-5,00
889,79	0,16
889,96	3,24
890,13	-1,64
890,29	-3,60
890,46	-2,74
890,63	12,78
890,80	-2,87
890,97	-6,02
891,13	3,93
891,30	8,93
891,47	4,42
891,64	5,32
891,81	-4,42
891,98	13,03
892,14	-4,71
892,31	14,83
892,48	2,33
892,65	-1,97
892,82	-0,20
892,98	9,87
893,15	20,27
893,32	13,23
>>>>>End Processed Spectral Data<<<<<
